Lambda ArbUnit
4.64000E+2 8.27246E-2
4.65000E+2 8.60617E-2
4.66000E+2 8.93925E-2
4.67000E+2 9.27070E-2
4.68000E+2 9.60157E-2
4.69000E+2 9.93195E-2
4.70000E+2 1.02607E-1
4.71000E+2 1.05888E-1
4.72000E+2 1.09165E-1
4.73000E+2 1.12432E-1
4.74000E+2 1.15689E-1
4.75000E+2 1.18938E-1
4.76000E+2 1.22177E-1
4.77000E+2 1.25408E-1
4.78000E+2 1.28629E-1
4.79000E+2 1.31842E-1
4.80000E+2 1.35044E-1
4.81000E+2 1.38239E-1
4.82000E+2 1.41432E-1
4.83000E+2 1.44610E-1
4.84000E+2 1.47777E-1
4.85000E+2 1.50941E-1
4.86000E+2 1.54097E-1
4.87000E+2 1.57243E-1
4.88000E+2 1.60380E-1
4.89000E+2 1.63509E-1
4.90000E+2 1.66627E-1
4.91000E+2 1.69736E-1
4.92000E+2 1.72843E-1
4.93000E+2 1.75940E-1
4.94000E+2 1.79022E-1
4.95000E+2 1.82100E-1
4.96000E+2 1.85172E-1
4.97000E+2 1.88234E-1
4.98000E+2 1.91286E-1
4.99000E+2 1.94330E-1
5.00000E+2 1.97365E-1
5.01000E+2 2.00389E-1
5.02000E+2 2.03409E-1
5.03000E+2 2.06424E-1
5.04000E+2 2.09422E-1
5.05000E+2 2.12413E-1
5.06000E+2 2.15401E-1
5.07000E+2 2.18378E-1
5.08000E+2 2.21350E-1
5.09000E+2 2.24317E-1
5.10000E+2 2.27267E-1
5.11000E+2 2.30211E-1
5.12000E+2 2.33151E-1
5.13000E+2 2.36081E-1
5.14000E+2 2.39001E-1
5.15000E+2 2.41913E-1
5.16000E+2 2.44814E-1
5.17000E+2 2.47712E-1
5.18000E+2 2.50603E-1
5.19000E+2 2.53478E-1
5.20000E+2 2.56347E-1
5.21000E+2 2.59212E-1
5.22000E+2 2.62066E-1
5.23000E+2 2.64916E-1
5.24000E+2 2.67759E-1
5.25000E+2 2.70586E-1
5.26000E+2 2.73408E-1
5.27000E+2 2.76225E-1
5.28000E+2 2.79031E-1
5.29000E+2 2.81834E-1
5.30000E+2 2.84628E-1
5.31000E+2 2.87407E-1
5.32000E+2 2.90181E-1
5.33000E+2 2.92952E-1
5.34000E+2 2.95719E-1
5.35000E+2 2.98470E-1
5.36000E+2 3.01211E-1
5.37000E+2 3.03950E-1
5.38000E+2 3.06680E-1
5.39000E+2 3.09400E-1
5.40000E+2 3.12111E-1
5.41000E+2 3.14812E-1
5.42000E+2 3.17508E-1
5.43000E+2 3.20199E-1
5.44000E+2 3.22879E-1
5.45000E+2 3.25555E-1
5.46000E+2 3.28226E-1
5.47000E+2 3.30880E-1
5.48000E+2 3.33526E-1
5.49000E+2 3.36170E-1
5.50000E+2 3.38811E-1
5.51000E+2 3.41439E-1
5.52000E+2 3.44054E-1
5.53000E+2 3.46666E-1
5.54000E+2 3.49271E-1
5.55000E+2 3.51866E-1
5.56000E+2 3.54458E-1
5.57000E+2 3.57042E-1
5.58000E+2 3.59616E-1
5.59000E+2 3.62181E-1
5.60000E+2 3.64736E-1
5.61000E+2 3.67284E-1
5.62000E+2 3.69829E-1
5.63000E+2 3.72364E-1
5.64000E+2 3.74891E-1
5.65000E+2 3.77415E-1
5.66000E+2 3.79931E-1
5.67000E+2 3.82436E-1
5.68000E+2 3.84933E-1
5.69000E+2 3.87425E-1
5.70000E+2 3.89911E-1
5.71000E+2 3.92387E-1
5.72000E+2 3.94853E-1
5.73000E+2 3.97313E-1
5.74000E+2 3.99769E-1
5.75000E+2 4.02215E-1
5.76000E+2 4.04655E-1
5.77000E+2 4.07091E-1
5.78000E+2 4.09510E-1
5.79000E+2 4.11924E-1
5.80000E+2 4.14339E-1
5.81000E+2 4.16740E-1
5.82000E+2 4.19130E-1
5.83000E+2 4.21518E-1
5.84000E+2 4.23902E-1
5.85000E+2 4.26278E-1
5.86000E+2 4.28645E-1
5.87000E+2 4.31001E-1
5.88000E+2 4.33352E-1
5.89000E+2 4.35699E-1
5.90000E+2 4.38037E-1
5.91000E+2 4.40364E-1
5.92000E+2 4.42683E-1
5.93000E+2 4.44999E-1
5.94000E+2 4.47306E-1
5.95000E+2 4.49605E-1
5.96000E+2 4.51900E-1
5.97000E+2 4.54187E-1
5.98000E+2 4.56465E-1
5.99000E+2 4.58740E-1
6.00000E+2 4.61007E-1
6.01000E+2 4.63264E-1
6.02000E+2 4.65519E-1
6.03000E+2 4.67765E-1
6.04000E+2 4.70001E-1
6.05000E+2 4.72228E-1
6.06000E+2 4.74451E-1
6.07000E+2 4.76667E-1
6.08000E+2 4.78874E-1
6.09000E+2 4.81075E-1
6.10000E+2 4.83273E-1
6.11000E+2 4.85467E-1
6.12000E+2 4.87645E-1
6.13000E+2 4.89815E-1
6.14000E+2 4.91988E-1
6.15000E+2 4.94153E-1
6.16000E+2 4.96306E-1
6.17000E+2 4.98451E-1
6.18000E+2 5.00593E-1
6.19000E+2 5.02727E-1
6.20000E+2 5.04851E-1
6.21000E+2 5.06972E-1
6.22000E+2 5.09086E-1
6.23000E+2 5.11190E-1
6.24000E+2 5.13290E-1
6.25000E+2 5.15383E-1
6.26000E+2 5.17466E-1
6.27000E+2 5.19547E-1
6.28000E+2 5.21619E-1
6.29000E+2 5.23682E-1
6.30000E+2 5.25742E-1
6.31000E+2 5.27794E-1
6.32000E+2 5.29836E-1
6.33000E+2 5.31874E-1
6.34000E+2 5.33909E-1
6.35000E+2 5.35938E-1
6.36000E+2 5.37958E-1
6.37000E+2 5.39968E-1
6.38000E+2 5.41970E-1
6.39000E+2 5.43967E-1
6.40000E+2 5.45962E-1
6.41000E+2 5.47950E-1
6.42000E+2 5.49928E-1
6.43000E+2 5.51900E-1
6.44000E+2 5.53868E-1
6.45000E+2 5.55826E-1
6.46000E+2 5.57777E-1
6.47000E+2 5.59726E-1
6.48000E+2 5.61670E-1
6.49000E+2 5.63606E-1
6.50000E+2 5.65531E-1
6.51000E+2 5.67446E-1
6.52000E+2 5.69364E-1
6.53000E+2 5.71276E-1
6.54000E+2 5.73171E-1
6.55000E+2 5.75066E-1
6.56000E+2 5.76960E-1
6.57000E+2 5.78842E-1
6.58000E+2 5.80713E-1
6.59000E+2 5.82581E-1
6.60000E+2 5.84450E-1
6.61000E+2 5.86311E-1
6.62000E+2 5.88161E-1
6.63000E+2 5.90002E-1
6.64000E+2 5.91838E-1
6.65000E+2 5.93671E-1
6.66000E+2 5.95499E-1
6.67000E+2 5.97317E-1
6.68000E+2 5.99128E-1
6.69000E+2 6.00936E-1
6.70000E+2 6.02740E-1
6.71000E+2 6.04535E-1
6.72000E+2 6.06321E-1
6.73000E+2 6.08105E-1
6.74000E+2 6.09879E-1
6.75000E+2 6.11645E-1
6.76000E+2 6.13415E-1
6.77000E+2 6.15174E-1
6.78000E+2 6.16918E-1
6.79000E+2 6.18667E-1
6.80000E+2 6.20408E-1
6.81000E+2 6.22140E-1
6.82000E+2 6.23869E-1
6.83000E+2 6.25588E-1
6.84000E+2 6.27300E-1
6.85000E+2 6.29016E-1
6.86000E+2 6.30718E-1
6.87000E+2 6.32409E-1
6.88000E+2 6.34103E-1
6.89000E+2 6.35790E-1
6.90000E+2 6.37467E-1
6.91000E+2 6.39140E-1
6.92000E+2 6.40810E-1
6.93000E+2 6.42473E-1
6.94000E+2 6.44126E-1
6.95000E+2 6.45774E-1
6.96000E+2 6.47419E-1
6.97000E+2 6.49058E-1
6.98000E+2 6.50694E-1
6.99000E+2 6.52323E-1
7.00000E+2 6.53941E-1
7.01000E+2 6.55557E-1
7.02000E+2 6.57165E-1
7.03000E+2 6.58763E-1
7.04000E+2 6.60362E-1
7.05000E+2 6.61958E-1
7.06000E+2 6.63542E-1
7.07000E+2 6.65123E-1
7.08000E+2 6.66697E-1
7.09000E+2 6.68261E-1
7.10000E+2 6.69820E-1
7.11000E+2 6.71379E-1
7.12000E+2 6.72938E-1
7.13000E+2 6.74479E-1
7.14000E+2 6.76015E-1
7.15000E+2 6.77554E-1
7.16000E+2 6.79081E-1
7.17000E+2 6.80601E-1
7.18000E+2 6.82119E-1
7.19000E+2 6.83631E-1
7.20000E+2 6.85139E-1
7.21000E+2 6.86642E-1
7.22000E+2 6.88142E-1
7.23000E+2 6.89633E-1
7.24000E+2 6.91115E-1
7.25000E+2 6.92593E-1
7.26000E+2 6.94068E-1
7.27000E+2 6.95536E-1
7.28000E+2 6.96994E-1
7.29000E+2 6.98451E-1
7.30000E+2 6.99907E-1
7.31000E+2 7.01352E-1
7.32000E+2 7.02790E-1
7.33000E+2 7.04226E-1
7.34000E+2 7.05658E-1
7.35000E+2 7.07079E-1
7.36000E+2 7.08494E-1
7.37000E+2 7.09912E-1
7.38000E+2 7.11321E-1
7.39000E+2 7.12720E-1
7.40000E+2 7.14117E-1
7.41000E+2 7.15509E-1
7.42000E+2 7.16897E-1
7.43000E+2 7.18280E-1
7.44000E+2 7.19659E-1
7.45000E+2 7.21031E-1
7.46000E+2 7.22394E-1
7.47000E+2 7.23750E-1
7.48000E+2 7.25106E-1
7.49000E+2 7.26463E-1
7.50000E+2 7.27809E-1
7.51000E+2 7.29148E-1
7.52000E+2 7.30484E-1
7.53000E+2 7.31808E-1
7.54000E+2 7.33130E-1
7.55000E+2 7.34452E-1
7.56000E+2 7.35763E-1
7.57000E+2 7.37071E-1
7.58000E+2 7.38379E-1
7.59000E+2 7.39677E-1
7.60000E+2 7.40968E-1
7.61000E+2 7.42256E-1
7.62000E+2 7.43539E-1
7.63000E+2 7.44818E-1
7.64000E+2 7.46092E-1
7.65000E+2 7.47361E-1
7.66000E+2 7.48627E-1
7.67000E+2 7.49886E-1
7.68000E+2 7.51135E-1
7.69000E+2 7.52383E-1
7.70000E+2 7.53630E-1
7.71000E+2 7.54865E-1
7.72000E+2 7.56099E-1
7.73000E+2 7.57332E-1
7.74000E+2 7.58555E-1
7.75000E+2 7.59770E-1
7.76000E+2 7.60984E-1
7.77000E+2 7.62199E-1
7.78000E+2 7.63406E-1
7.79000E+2 7.64604E-1
7.80000E+2 7.65798E-1
7.81000E+2 7.66988E-1
7.82000E+2 7.68174E-1
7.83000E+2 7.69355E-1
7.84000E+2 7.70526E-1
7.85000E+2 7.71691E-1
7.86000E+2 7.72859E-1
7.87000E+2 7.74022E-1
7.88000E+2 7.75179E-1
7.89000E+2 7.76333E-1
7.90000E+2 7.77483E-1
7.91000E+2 7.78625E-1
7.92000E+2 7.79757E-1
7.93000E+2 7.80890E-1
7.94000E+2 7.82023E-1
7.95000E+2 7.83149E-1
7.96000E+2 7.84264E-1
7.97000E+2 7.85376E-1
7.98000E+2 7.86489E-1
7.99000E+2 7.87591E-1
8.00000E+2 7.88689E-1
8.01000E+2 7.89789E-1
8.02000E+2 7.90885E-1
8.03000E+2 7.91971E-1
8.04000E+2 7.93049E-1
8.05000E+2 7.94128E-1
8.06000E+2 7.95206E-1
8.07000E+2 7.96277E-1
8.08000E+2 7.97337E-1
8.09000E+2 7.98395E-1
8.10000E+2 7.99454E-1
8.11000E+2 8.00509E-1
8.12000E+2 8.01553E-1
8.13000E+2 8.02590E-1
8.14000E+2 8.03629E-1
8.15000E+2 8.04666E-1
8.16000E+2 8.05696E-1
8.17000E+2 8.06722E-1
8.18000E+2 8.07744E-1
8.19000E+2 8.08760E-1
8.20000E+2 8.09765E-1
8.21000E+2 8.10770E-1
8.22000E+2 8.11774E-1
8.23000E+2 8.12772E-1
8.24000E+2 8.13771E-1
8.25000E+2 8.14767E-1
8.26000E+2 8.15752E-1
8.27000E+2 8.16732E-1
8.28000E+2 8.17708E-1
8.29000E+2 8.18679E-1
8.30000E+2 8.19652E-1
8.31000E+2 8.20619E-1
8.32000E+2 8.21576E-1
8.33000E+2 8.22535E-1
8.34000E+2 8.23489E-1
8.35000E+2 8.24432E-1
8.36000E+2 8.25376E-1
8.37000E+2 8.26319E-1
8.38000E+2 8.27257E-1
8.39000E+2 8.28189E-1
8.40000E+2 8.29117E-1
8.41000E+2 8.30041E-1
8.42000E+2 8.30960E-1
8.43000E+2 8.31874E-1
8.44000E+2 8.32784E-1
8.45000E+2 8.33696E-1
8.46000E+2 8.34601E-1
8.47000E+2 8.35497E-1
8.48000E+2 8.36394E-1
8.49000E+2 8.37289E-1
8.50000E+2 8.38178E-1
8.51000E+2 8.39063E-1
8.52000E+2 8.39943E-1
8.53000E+2 8.40819E-1
8.54000E+2 8.41690E-1
8.55000E+2 8.42556E-1
8.56000E+2 8.43419E-1
8.57000E+2 8.44284E-1
8.58000E+2 8.45140E-1
8.59000E+2 8.45988E-1
8.60000E+2 8.46838E-1
8.61000E+2 8.47685E-1
8.62000E+2 8.48527E-1
8.63000E+2 8.49364E-1
8.64000E+2 8.50195E-1
8.65000E+2 8.51025E-1
8.66000E+2 8.51855E-1
8.67000E+2 8.52676E-1
8.68000E+2 8.53491E-1
8.69000E+2 8.54308E-1
8.70000E+2 8.55119E-1
8.71000E+2 8.55928E-1
8.72000E+2 8.56739E-1
8.73000E+2 8.57538E-1
8.74000E+2 8.58333E-1
8.75000E+2 8.59130E-1
8.76000E+2 8.59916E-1
8.77000E+2 8.60696E-1
8.78000E+2 8.61479E-1
8.79000E+2 8.62263E-1
8.80000E+2 8.63041E-1
8.81000E+2 8.63809E-1
8.82000E+2 8.64578E-1
8.83000E+2 8.65345E-1
8.84000E+2 8.66106E-1
8.85000E+2 8.66864E-1
8.86000E+2 8.67616E-1
8.87000E+2 8.68364E-1
8.88000E+2 8.69113E-1
8.89000E+2 8.69859E-1
8.90000E+2 8.70600E-1
8.91000E+2 8.71337E-1
8.92000E+2 8.72068E-1
8.93000E+2 8.72796E-1
8.94000E+2 8.73525E-1
8.95000E+2 8.74251E-1
8.96000E+2 8.74972E-1
8.97000E+2 8.75688E-1
8.98000E+2 8.76398E-1
8.99000E+2 8.77106E-1
9.00000E+2 8.77815E-1
9.01000E+2 8.78520E-1
9.02000E+2 8.79220E-1
9.03000E+2 8.79916E-1
9.04000E+2 8.80606E-1
9.05000E+2 8.81293E-1
9.06000E+2 8.81982E-1
9.07000E+2 8.82666E-1
9.08000E+2 8.83345E-1
9.09000E+2 8.84020E-1
9.10000E+2 8.84694E-1
9.11000E+2 8.85368E-1
9.12000E+2 8.86036E-1
9.13000E+2 8.86698E-1
9.14000E+2 8.87359E-1
9.15000E+2 8.88020E-1
9.16000E+2 8.88677E-1
9.17000E+2 8.89329E-1
9.18000E+2 8.89977E-1
9.19000E+2 8.90619E-1
9.20000E+2 8.91259E-1
9.21000E+2 8.91900E-1
9.22000E+2 8.92536E-1
9.23000E+2 8.93169E-1
9.24000E+2 8.93803E-1
9.25000E+2 8.94433E-1
9.26000E+2 8.95057E-1
9.27000E+2 8.95677E-1
9.28000E+2 8.96292E-1
9.29000E+2 8.96905E-1
9.30000E+2 8.97519E-1
9.31000E+2 8.98135E-1
9.32000E+2 8.98742E-1
9.33000E+2 8.99341E-1
9.34000E+2 8.99941E-1
9.35000E+2 9.00543E-1
9.36000E+2 9.01142E-1
9.37000E+2 9.01730E-1
9.38000E+2 9.02315E-1
9.39000E+2 9.02903E-1
9.40000E+2 9.03490E-1
9.41000E+2 9.04074E-1
9.42000E+2 9.04652E-1
9.43000E+2 9.05226E-1
9.44000E+2 9.05799E-1
9.45000E+2 9.06372E-1
9.46000E+2 9.06939E-1
9.47000E+2 9.07501E-1
9.48000E+2 9.08060E-1
9.49000E+2 9.08621E-1
9.50000E+2 9.09176E-1
9.51000E+2 9.09729E-1
9.52000E+2 9.10282E-1
9.53000E+2 9.10832E-1
9.54000E+2 9.11376E-1
9.55000E+2 9.11915E-1
9.56000E+2 9.12454E-1
9.57000E+2 9.12995E-1
9.58000E+2 9.13535E-1
9.59000E+2 9.14063E-1
9.60000E+2 9.14591E-1
9.61000E+2 9.15125E-1
9.62000E+2 9.15648E-1
9.63000E+2 9.16165E-1
9.64000E+2 9.16685E-1
9.65000E+2 9.17205E-1
9.66000E+2 9.17723E-1
9.67000E+2 9.18235E-1
9.68000E+2 9.18742E-1
9.69000E+2 9.19246E-1
9.70000E+2 9.19753E-1
9.71000E+2 9.20261E-1
9.72000E+2 9.20760E-1
9.73000E+2 9.21251E-1
9.74000E+2 9.21750E-1
9.75000E+2 9.22248E-1
9.76000E+2 9.22739E-1
9.77000E+2 9.23224E-1
9.78000E+2 9.23710E-1
9.79000E+2 9.24196E-1
9.80000E+2 9.24675E-1
9.81000E+2 9.25154E-1
9.82000E+2 9.25632E-1
9.83000E+2 9.26105E-1
9.84000E+2 9.26577E-1
9.85000E+2 9.27048E-1
9.86000E+2 9.27514E-1
9.87000E+2 9.27979E-1
9.88000E+2 9.28444E-1
9.89000E+2 9.28903E-1
9.90000E+2 9.29362E-1
9.91000E+2 9.29819E-1
9.92000E+2 9.30271E-1
9.93000E+2 9.30723E-1
9.94000E+2 9.31174E-1
9.95000E+2 9.31619E-1
9.96000E+2 9.32063E-1
9.97000E+2 9.32509E-1
9.98000E+2 9.32954E-1
9.99000E+2 9.33396E-1
1.00000E+3 9.33831E-1
1.00100E+3 9.34262E-1
1.00200E+3 9.34700E-1
1.00300E+3 9.35136E-1
1.00400E+3 9.35560E-1
1.00500E+3 9.35984E-1
1.00600E+3 9.36409E-1
1.00700E+3 9.36834E-1
1.00800E+3 9.37260E-1
1.00900E+3 9.37683E-1
1.01000E+3 9.38100E-1
1.01100E+3 9.38513E-1
1.01200E+3 9.38923E-1
1.01300E+3 9.39335E-1
1.01400E+3 9.39747E-1
1.01500E+3 9.40156E-1
1.01600E+3 9.40560E-1
1.01700E+3 9.40965E-1
1.01800E+3 9.41367E-1
1.01900E+3 9.41764E-1
1.02000E+3 9.42162E-1
1.02100E+3 9.42561E-1
1.02200E+3 9.42958E-1
1.02300E+3 9.43350E-1
1.02400E+3 9.43740E-1
1.02500E+3 9.44132E-1
1.02600E+3 9.44523E-1
1.02700E+3 9.44912E-1
1.02800E+3 9.45294E-1
1.02900E+3 9.45671E-1
1.03000E+3 9.46053E-1
1.03100E+3 9.46438E-1
1.03200E+3 9.46817E-1
1.03300E+3 9.47188E-1
1.03400E+3 9.47560E-1
1.03500E+3 9.47938E-1
1.03600E+3 9.48313E-1
1.03700E+3 9.48681E-1
1.03800E+3 9.49046E-1
1.03900E+3 9.49410E-1
1.04000E+3 9.49774E-1
1.04100E+3 9.50138E-1
1.04200E+3 9.50503E-1
1.04300E+3 9.50866E-1
1.04400E+3 9.51223E-1
1.04500E+3 9.51579E-1
1.04600E+3 9.51938E-1
1.04700E+3 9.52295E-1
1.04800E+3 9.52647E-1
1.04900E+3 9.52998E-1
1.05000E+3 9.53349E-1
1.05100E+3 9.53693E-1
1.05200E+3 9.54039E-1
1.05300E+3 9.54391E-1
1.05400E+3 9.54738E-1
1.05500E+3 9.55077E-1
1.05600E+3 9.55414E-1
1.05700E+3 9.55758E-1
1.05800E+3 9.56100E-1
1.05900E+3 9.56436E-1
1.06000E+3 9.56774E-1
1.06100E+3 9.57108E-1
1.06200E+3 9.57438E-1
1.06300E+3 9.57768E-1
1.06400E+3 9.58099E-1
1.06500E+3 9.58429E-1
1.06600E+3 9.58761E-1
1.06700E+3 9.59087E-1
1.06800E+3 9.59411E-1
1.06900E+3 9.59743E-1
1.07000E+3 9.60065E-1
1.07100E+3 9.60382E-1
1.07200E+3 9.60706E-1
1.07300E+3 9.61025E-1
1.07400E+3 9.61343E-1
1.07500E+3 9.61668E-1
1.07600E+3 9.61983E-1
1.07700E+3 9.62293E-1
1.07800E+3 9.62610E-1
1.07900E+3 9.62929E-1
1.08000E+3 9.63244E-1
1.08100E+3 9.63554E-1
1.08200E+3 9.63865E-1
1.08300E+3 9.64173E-1
1.08400E+3 9.64476E-1
1.08500E+3 9.64784E-1
1.08600E+3 9.65094E-1
1.08700E+3 9.65397E-1
1.08800E+3 9.65700E-1
1.08900E+3 9.66004E-1
1.09000E+3 9.66307E-1
1.09100E+3 9.66612E-1
1.09200E+3 9.66912E-1
1.09300E+3 9.67209E-1
1.09400E+3 9.67512E-1
1.09500E+3 9.67813E-1
1.09600E+3 9.68109E-1
1.09700E+3 9.68407E-1
1.09800E+3 9.68700E-1
1.09900E+3 9.68990E-1
1.10000E+3 9.69287E-1
1.10100E+3 9.69581E-1
1.10200E+3 9.69870E-1
1.10300E+3 9.70160E-1
1.10400E+3 9.70450E-1
1.10500E+3 9.70740E-1
1.10600E+3 9.71031E-1
1.10700E+3 9.71320E-1
1.10800E+3 9.71611E-1
1.10900E+3 9.71902E-1
1.11000E+3 9.72188E-1
1.11100E+3 9.72470E-1
1.11200E+3 9.72754E-1
1.11300E+3 9.73037E-1
1.11400E+3 9.73320E-1
1.11500E+3 9.73604E-1
1.11600E+3 9.73887E-1
1.11700E+3 9.74170E-1
1.11800E+3 9.74455E-1
1.11900E+3 9.74732E-1
1.12000E+3 9.75010E-1
1.12100E+3 9.75294E-1
1.12200E+3 9.75572E-1
1.12300E+3 9.75850E-1
1.12400E+3 9.76134E-1
1.12500E+3 9.76413E-1
1.12600E+3 9.76688E-1
1.12700E+3 9.76965E-1
1.12800E+3 9.77243E-1
1.12900E+3 9.77516E-1
1.13000E+3 9.77786E-1
1.13100E+3 9.78060E-1
1.13200E+3 9.78338E-1
1.13300E+3 9.78615E-1
1.13400E+3 9.78885E-1
1.13500E+3 9.79157E-1
1.13600E+3 9.79434E-1
1.13700E+3 9.79706E-1
1.13800E+3 9.79974E-1
1.13900E+3 9.80244E-1
1.14000E+3 9.80521E-1
1.14100E+3 9.80795E-1
1.14200E+3 9.81064E-1
1.14300E+3 9.81333E-1
1.14400E+3 9.81603E-1
1.14500E+3 9.81873E-1
1.14600E+3 9.82143E-1
1.14700E+3 9.82413E-1
1.14800E+3 9.82683E-1
1.14900E+3 9.82953E-1
1.15000E+3 9.83222E-1
1.15100E+3 9.83492E-1
1.15200E+3 9.83762E-1
1.15300E+3 9.84033E-1
1.15400E+3 9.84301E-1
1.15500E+3 9.84564E-1
1.15600E+3 9.84830E-1
1.15700E+3 9.85101E-1
1.15800E+3 9.85371E-1
1.15900E+3 9.85642E-1
1.16000E+3 9.85910E-1
1.16100E+3 9.86172E-1
1.16200E+3 9.86439E-1
1.16300E+3 9.86710E-1
1.16400E+3 9.86981E-1
1.16500E+3 9.87245E-1
1.16600E+3 9.87509E-1
1.16700E+3 9.87779E-1
1.16800E+3 9.88049E-1
1.16900E+3 9.88319E-1
1.17000E+3 9.88589E-1
1.17100E+3 9.88853E-1
1.17200E+3 9.89118E-1
1.17300E+3 9.89388E-1
1.17400E+3 9.89658E-1
1.17500E+3 9.89928E-1
1.17600E+3 9.90198E-1
1.17700E+3 9.90467E-1
1.17800E+3 9.90737E-1
1.17900E+3 9.91007E-1
1.18000E+3 9.91277E-1
1.18100E+3 9.91547E-1
1.18200E+3 9.91817E-1
1.18300E+3 9.92086E-1
1.18400E+3 9.92356E-1
1.18500E+3 9.92626E-1
1.18600E+3 9.92896E-1
1.18700E+3 9.93166E-1
1.18800E+3 9.93436E-1
1.18900E+3 9.93704E-1
1.19000E+3 9.93978E-1
1.19100E+3 9.94255E-1
1.19200E+3 9.94524E-1
