Lambda, A|Data, Arb. Unit
1 3684.387 258
2 3687.207 260
3 3690.027 256
4 3692.847 259
5 3695.666 260
6 3698.484 259
7 3701.301 257
8 3704.118 257
9 3706.935 258
10 3709.751 260
11 3712.566 259
12 3715.381 257
13 3718.195 256
14 3721.009 258
15 3723.822 260
16 3726.635 259
17 3729.446 257
18 3732.258 257
19 3735.069 258
20 3737.879 259
21 3740.689 259
22 3743.499 257
23 3746.307 257
24 3749.116 258
25 3751.923 259
26 3754.731 259
27 3757.537 257
28 3760.344 257
29 3763.149 258
30 3765.955 259
31 3768.759 260
32 3771.563 258
33 3774.367 257
34 3777.17 257
35 3779.973 259
36 3782.774 260
37 3785.576 258
38 3788.377 257
39 3791.178 258
40 3793.978 259
41 3796.778 259
42 3799.577 257
43 3802.375 258
44 3805.173 257
45 3807.971 259
46 3810.768 260
47 3813.565 259
48 3816.361 257
49 3819.157 257
50 3821.952 259
51 3824.747 260
52 3827.542 258
53 3830.335 257
54 3833.129 257
55 3835.921 258
56 3838.714 260
57 3841.506 259
58 3844.297 258
59 3847.089 257
60 3849.879 258
61 3852.669 260
62 3855.459 260
63 3858.248 257
64 3861.037 257
65 3863.826 260
66 3866.614 260
67 3869.401 260
68 3872.188 258
69 3874.975 258
70 3877.761 259
71 3880.547 260
72 3883.332 261
73 3886.117 258
74 3888.902 258
75 3891.685 260
76 3894.469 261
77 3897.253 261
78 3900.035 259
79 3902.817 259
80 3905.599 258
81 3908.381 261
82 3911.162 262
83 3913.943 260
84 3916.723 259
85 3919.503 259
86 3922.282 261
87 3925.061 262
88 3927.84 262
89 3930.618 260
90 3933.396 260
91 3936.174 262
92 3938.951 264
93 3941.728 262
94 3944.504 261
95 3947.28 261
96 3950.055 262
97 3952.83 264
98 3955.605 264
99 3958.38 263
100 3961.153 262
101 3963.927 263
102 3966.7 266
103 3969.473 266
104 3972.245 265
105 3975.017 264
106 3977.789 264
107 3980.56 266
108 3983.331 267
109 3986.102 267
110 3988.872 265
111 3991.642 266
112 3994.412 267
113 3997.181 269
114 3999.95 268
115 4002.718 267
116 4005.486 268
117 4008.254 269
118 4011.021 271
119 4013.788 272
120 4016.555 269
121 4019.321 270
122 4022.087 270
123 4024.853 273
124 4027.618 275
125 4030.383 273
126 4033.147 273
127 4035.912 273
128 4038.676 276
129 4041.439 277
130 4044.203 276
131 4046.966 275
132 4049.728 276
133 4052.491 278
134 4055.252 280
135 4058.014 280
136 4060.775 278
137 4063.536 278
138 4066.297 281
139 4069.057 283
140 4071.817 283
141 4074.577 281
142 4077.336 282
143 4080.095 284
144 4082.854 286
145 4085.612 288
146 4088.37 286
147 4091.128 286
148 4093.885 288
149 4096.643 289
150 4099.4 291
151 4102.156 290
152 4104.912 290
153 4107.668 292
154 4110.424 295
155 4113.179 296
156 4115.935 295
157 4118.689 295
158 4121.444 295
159 4124.198 299
160 4126.952 301
161 4129.706 300
162 4132.459 299
163 4135.212 300
164 4137.965 303
165 4140.717 305
166 4143.469 305
167 4146.221 304
168 4148.973 304
169 4151.724 307
170 4154.475 309
171 4157.226 309
172 4159.976 309
173 4162.726 310
174 4165.476 311
175 4168.226 314
176 4170.975 315
177 4173.725 314
178 4176.473 313
179 4179.222 317
180 4181.971 318
181 4184.719 320
182 4187.466 319
183 4190.214 320
184 4192.961 320
185 4195.708 323
186 4198.455 325
187 4201.201 324
188 4203.948 325
189 4206.694 326
190 4209.439 329
191 4212.185 331
192 4214.93 330
193 4217.675 330
194 4220.42 330
195 4223.164 334
196 4225.909 336
197 4228.652 334
198 4231.396 335
199 4234.139 336
200 4236.883 339
201 4239.626 342
202 4242.369 340
203 4245.111 341
204 4247.853 342
205 4250.595 345
206 4253.337 347
207 4256.079 345
208 4258.82 346
209 4261.561 346
210 4264.302 350
211 4267.043 351
212 4269.783 349
213 4272.523 352
214 4275.264 353
215 4278.003 356
216 4280.743 357
217 4283.482 356
218 4286.221 357
219 4288.96 358
220 4291.698 362
221 4294.437 363
222 4297.175 362
223 4299.913 362
224 4302.65 364
225 4305.388 367
226 4308.125 368
227 4310.863 368
228 4313.599 368
229 4316.336 371
230 4319.073 373
231 4321.809 374
232 4324.545 373
233 4327.281 375
234 4330.016 377
235 4332.752 380
236 4335.487 381
237 4338.222 380
238 4340.956 381
239 4343.691 384
240 4346.425 386
241 4349.16 387
242 4351.894 387
243 4354.627 387
244 4357.361 390
245 4360.094 393
246 4362.828 394
247 4365.561 393
248 4368.293 394
249 4371.026 397
250 4373.759 400
251 4376.49 400
252 4379.223 400
253 4381.954 401
254 4384.686 404
255 4387.417 407
256 4390.149 407
257 4392.88 407
258 4395.611 409
259 4398.341 411
260 4401.072 414
261 4403.802 413
262 4406.533 414
263 4409.262 415
264 4411.992 419
265 4414.722 422
266 4417.451 421
267 4420.18 422
268 4422.909 424
269 4425.638 428
270 4428.367 430
271 4431.096 429
272 4433.824 431
273 4436.552 432
274 4439.28 437
275 4442.008 439
276 4444.735 438
277 4447.463 439
278 4450.19 441
279 4452.917 445
280 4455.644 447
281 4458.371 447
282 4461.098 449
283 4463.824 450
284 4466.551 455
285 4469.277 457
286 4472.003 458
287 4474.728 459
288 4477.454 461
289 4480.179 466
290 4482.905 467
291 4485.63 468
292 4488.355 469
293 4491.08 471
294 4493.805 476
295 4496.529 478
296 4499.254 478
297 4501.978 479
298 4504.702 482
299 4507.426 487
300 4510.149 490
301 4512.873 490
302 4515.596 491
303 4518.319 494
304 4521.043 499
305 4523.766 500
306 4526.488 502
307 4529.211 504
308 4531.934 506
309 4534.656 512
310 4537.378 515
311 4540.1 517
312 4542.822 518
313 4545.544 520
314 4548.265 524
315 4550.987 528
316 4553.708 530
317 4556.429 531
318 4559.15 534
319 4561.871 538
320 4564.592 542
321 4567.313 544
322 4570.033 545
323 4572.753 548
324 4575.473 553
325 4578.194 556
326 4580.913 557
327 4583.633 560
328 4586.353 563
329 4589.072 566
330 4591.791 572
331 4594.511 574
332 4597.23 575
333 4599.948 578
334 4602.668 583
335 4605.386 587
336 4608.105 590
337 4610.823 592
338 4613.541 593
339 4616.259 598
340 4618.977 603
341 4621.695 606
342 4624.413 607
343 4627.13 610
344 4629.848 615
345 4632.565 619
346 4635.283 622
347 4638 625
348 4640.717 627
349 4643.433 631
350 4646.15 636
351 4648.866 640
352 4651.583 641
353 4654.299 645
354 4657.015 650
355 4659.731 654
356 4662.447 659
357 4665.163 660
358 4667.879 663
359 4670.594 667
360 4673.31 673
361 4676.025 678
362 4678.74 679
363 4681.455 683
364 4684.17 686
365 4686.885 691
366 4689.6 697
367 4692.314 699
368 4695.028 703
369 4697.743 705
370 4700.457 711
371 4703.171 716
372 4705.885 718
373 4708.599 720
374 4711.313 723
375 4714.026 729
376 4716.74 734
377 4719.453 738
378 4722.166 740
379 4724.879 744
380 4727.593 749
381 4730.305 755
382 4733.018 756
383 4735.731 759
384 4738.444 764
385 4741.156 772
386 4743.868 777
387 4746.581 782
388 4749.293 787
389 4752.005 792
390 4754.716 800
391 4757.428 811
392 4760.14 820
393 4762.852 825
394 4765.563 832
395 4768.274 839
396 4770.986 848
397 4773.697 855
398 4776.408 861
399 4779.118 867
400 4781.83 873
401 4784.54 881
402 4787.25 887
403 4789.961 891
404 4792.671 894
405 4795.381 898
406 4798.091 902
407 4800.802 906
408 4803.511 908
409 4806.221 910
410 4808.931 914
411 4811.641 921
412 4814.35 926
413 4817.06 929
414 4819.769 933
415 4822.478 936
416 4825.187 941
417 4827.896 949
418 4830.605 952
419 4833.314 955
420 4836.022 958
421 4838.731 966
422 4841.439 972
423 4844.148 975
424 4846.856 980
425 4849.564 985
426 4852.272 991
427 4854.98 997
428 4857.688 1001
429 4860.395 1005
430 4863.103 1009
431 4865.81 1017
432 4868.518 1025
433 4871.225 1030
434 4873.932 1032
435 4876.639 1036
436 4879.347 1045
437 4882.053 1051
438 4884.76 1057
439 4887.467 1061
440 4890.174 1066
441 4892.88 1072
442 4895.587 1079
443 4898.293 1085
444 4900.999 1089
445 4903.705 1095
446 4906.411 1100
447 4909.117 1109
448 4911.823 1114
449 4914.529 1118
450 4917.234 1123
451 4919.94 1129
452 4922.645 1137
453 4925.35 1145
454 4928.055 1150
455 4930.761 1154
456 4933.466 1161
457 4936.171 1168
458 4938.875 1175
459 4941.58 1182
460 4944.285 1186
461 4946.989 1191
462 4949.694 1199
463 4952.398 1206
464 4955.103 1213
465 4957.807 1218
466 4960.511 1225
467 4963.215 1232
468 4965.919 1241
469 4968.622 1248
470 4971.326 1252
471 4974.029 1258
472 4976.733 1266
473 4979.436 1273
474 4982.14 1282
475 4984.843 1289
476 4987.546 1294
477 4990.249 1299
478 4992.952 1307
479 4995.655 1318
480 4998.358 1324
481 5001.06 1328
482 5003.763 1335
483 5006.465 1342
484 5009.167 1351
485 5011.87 1358
486 5014.572 1363
487 5017.274 1369
488 5019.976 1376
489 5022.678 1385
490 5025.38 1393
491 5028.081 1399
492 5030.783 1404
493 5033.484 1412
494 5036.185 1422
495 5038.887 1430
496 5041.588 1435
497 5044.289 1440
498 5046.99 1446
499 5049.691 1455
500 5052.392 1464
501 5055.093 1468
502 5057.793 1474
503 5060.494 1480
504 5063.194 1489
505 5065.895 1498
506 5068.595 1505
507 5071.295 1509
508 5073.995 1516
509 5076.695 1524
510 5079.395 1533
511 5082.095 1540
512 5084.795 1546
513 5087.495 1552
514 5090.194 1560
515 5092.893 1569
516 5095.593 1577
517 5098.292 1582
518 5100.991 1587
519 5103.69 1595
520 5106.389 1603
521 5109.088 1612
522 5111.787 1617
523 5114.485 1624
524 5117.184 1631
525 5119.882 1640
526 5122.581 1647
527 5125.279 1653
528 5127.977 1656
529 5130.676 1665
530 5133.373 1674
531 5136.071 1683
532 5138.77 1689
533 5141.467 1694
534 5144.165 1702
535 5146.862 1709
536 5149.56 1720
537 5152.257 1726
538 5154.954 1731
539 5157.651 1737
540 5160.349 1746
541 5163.046 1755
542 5165.742 1762
543 5168.439 1766
544 5171.136 1774
545 5173.832 1781
546 5176.529 1791
547 5179.225 1799
548 5181.922 1804
549 5184.618 1810
550 5187.314 1818
551 5190.01 1827
552 5192.706 1835
553 5195.402 1839
554 5198.098 1847
555 5200.793 1855
556 5203.489 1864
557 5206.185 1873
558 5208.88 1877
559 5211.575 1884
560 5214.271 1892
561 5216.965 1903
562 5219.661 1907
563 5222.355 1915
564 5225.05 1921
565 5227.745 1926
566 5230.439 1936
567 5233.134 1948
568 5235.828 1952
569 5238.523 1959
570 5241.217 1966
571 5243.911 1974
572 5246.605 1984
573 5249.299 1988
574 5251.993 1994
575 5254.687 2002
576 5257.38 2008
577 5260.074 2018
578 5262.767 2026
579 5265.461 2030
580 5268.154 2036
581 5270.847 2043
582 5273.541 2053
583 5276.233 2059
584 5278.926 2064
585 5281.619 2071
586 5284.312 2079
587 5287.004 2087
588 5289.697 2095
589 5292.389 2101
590 5295.081 2105
591 5297.773 2113
592 5300.466 2122
593 5303.157 2130
594 5305.849 2135
595 5308.541 2141
596 5311.233 2147
597 5313.925 2157
598 5316.616 2166
599 5319.307 2172
600 5321.998 2178
601 5324.69 2183
602 5327.381 2191
603 5330.072 2199
604 5332.762 2207
605 5335.453 2212
606 5338.144 2219
607 5340.835 2227
608 5343.525 2235
609 5346.216 2241
610 5348.906 2247
611 5351.596 2254
612 5354.286 2261
613 5356.976 2270
614 5359.666 2276
615 5362.356 2281
616 5365.046 2288
617 5367.735 2295
618 5370.425 2306
619 5373.114 2312
620 5375.803 2317
621 5378.492 2322
622 5381.181 2330
623 5383.87 2338
624 5386.559 2347
625 5389.248 2352
626 5391.937 2358
627 5394.625 2363
628 5397.314 2369
629 5400.002 2378
630 5402.69 2384
631 5405.378 2389
632 5408.066 2394
633 5410.754 2402
634 5413.442 2409
635 5416.13 2414
636 5418.817 2420
637 5421.505 2426
638 5424.192 2434
639 5426.879 2443
640 5429.567 2448
641 5432.253 2454
642 5434.94 2459
643 5437.628 2467
644 5440.314 2477
645 5443 2482
646 5445.687 2486
647 5448.373 2492
648 5451.06 2499
649 5453.746 2505
650 5456.432 2513
651 5459.118 2517
652 5461.804 2522
653 5464.49 2529
654 5467.175 2536
655 5469.861 2542
656 5472.546 2549
657 5475.231 2553
658 5477.917 2558
659 5480.602 2566
660 5483.287 2576
661 5485.972 2580
662 5488.657 2584
663 5491.342 2587
664 5494.025 2593
665 5496.71 2601
666 5499.395 2607
667 5502.079 2611
668 5504.763 2615
669 5507.447 2619
670 5510.131 2628
671 5512.814 2633
672 5515.498 2638
673 5518.182 2641
674 5520.865 2647
675 5523.549 2652
676 5526.231 2660
677 5528.914 2666
678 5531.597 2669
679 5534.28 2673
680 5536.963 2678
681 5539.645 2684
682 5542.328 2689
683 5545.01 2693
684 5547.693 2698
685 5550.375 2701
686 5553.057 2706
687 5555.739 2714
688 5558.42 2721
689 5561.102 2725
690 5563.784 2727
691 5566.465 2733
692 5569.147 2739
693 5571.828 2747
694 5574.509 2751
695 5577.19 2753
696 5579.871 2756
697 5582.552 2759
698 5585.233 2767
699 5587.913 2773
700 5590.593 2776
701 5593.273 2781
702 5595.953 2783
703 5598.633 2787
704 5601.313 2792
705 5603.993 2799
706 5606.672 2802
707 5609.352 2803
708 5612.032 2806
709 5614.711 2812
710 5617.39 2819
711 5620.069 2822
712 5622.748 2825
713 5625.427 2828
714 5628.105 2831
715 5630.784 2837
716 5633.463 2842
717 5636.141 2845
718 5638.819 2845
719 5641.497 2848
720 5644.175 2852
721 5646.853 2858
722 5649.53 2862
723 5652.208 2866
724 5654.885 2867
725 5657.563 2872
726 5660.24 2876
727 5662.917 2881
728 5665.594 2886
729 5668.27 2889
730 5670.947 2889
731 5673.624 2891
732 5676.3 2894
733 5678.976 2898
734 5681.652 2902
735 5684.329 2903
736 5687.004 2904
737 5689.68 2908
738 5692.356 2912
739 5695.031 2914
740 5697.707 2915
741 5700.381 2917
742 5703.057 2919
743 5705.732 2921
744 5708.407 2925
745 5711.082 2928
746 5713.756 2929
747 5716.431 2930
748 5719.105 2931
749 5721.779 2934
750 5724.453 2939
751 5727.127 2939
752 5729.8 2938
753 5732.474 2940
754 5735.148 2943
755 5737.822 2948
756 5740.494 2951
757 5743.168 2951
758 5745.841 2951
759 5748.514 2954
760 5751.186 2958
761 5753.859 2962
762 5756.531 2964
763 5759.204 2965
764 5761.876 2965
765 5764.548 2968
766 5767.22 2972
767 5769.892 2975
768 5772.563 2977
769 5775.234 2977
770 5777.906 2975
771 5780.577 2974
772 5783.248 2978
773 5785.919 2981
774 5788.59 2981
775 5791.26 2981
776 5793.931 2983
777 5796.602 2986
778 5799.272 2987
779 5801.942 2989
780 5804.612 2987
781 5807.281 2987
782 5809.951 2987
783 5812.62 2990
784 5815.29 2992
785 5817.959 2990
786 5820.629 2989
787 5823.297 2988
788 5825.966 2989
789 5828.635 2993
790 5831.303 2994
791 5833.972 2994
792 5836.64 2993
793 5839.308 2994
794 5841.976 2999
795 5844.644 2999
796 5847.311 2999
797 5849.979 2999
798 5852.646 3000
799 5855.313 3001
800 5857.98 3005
801 5860.648 3005
802 5863.314 3005
803 5865.98 3003
804 5868.647 3002
805 5871.313 3000
806 5873.979 3004
807 5876.646 3003
808 5879.312 3002
809 5881.978 3003
810 5884.642 3001
811 5887.308 3003
812 5889.973 3005
813 5892.639 3007
814 5895.303 3003
815 5897.968 3003
816 5900.633 3004
817 5903.298 3007
818 5905.961 3006
819 5908.626 3003
820 5911.29 2999
821 5913.954 2998
822 5916.617 3001
823 5919.281 3003
824 5921.945 3005
825 5924.608 3003
826 5927.271 3001
827 5929.934 3000
828 5932.597 3001
829 5935.259 3002
830 5937.922 2999
831 5940.585 2999
832 5943.247 2998
833 5945.908 2997
834 5948.571 2999
835 5951.232 3000
836 5953.894 2997
837 5956.555 2998
838 5959.216 2997
839 5961.877 2998
840 5964.539 3000
841 5967.199 2998
842 5969.86 2996
843 5972.521 2997
844 5975.181 2995
845 5977.841 2993
846 5980.501 2995
847 5983.161 2993
848 5985.82 2990
849 5988.48 2990
850 5991.139 2990
851 5993.798 2991
852 5996.457 2990
853 5999.116 2987
854 6001.775 2984
855 6004.434 2981
856 6007.092 2980
857 6009.75 2981
858 6012.408 2980
859 6015.066 2978
860 6017.723 2975
861 6020.381 2972
862 6023.038 2972
863 6025.696 2971
864 6028.353 2969
865 6031.01 2967
866 6033.666 2965
867 6036.323 2965
868 6038.979 2964
869 6041.636 2965
870 6044.291 2961
871 6046.947 2958
872 6049.603 2956
873 6052.259 2956
874 6054.914 2956
875 6057.569 2954
876 6060.224 2951
877 6062.879 2949
878 6065.534 2945
879 6068.188 2946
880 6070.843 2945
881 6073.497 2943
882 6076.151 2937
883 6078.804 2934
884 6081.458 2933
885 6084.112 2934
886 6086.766 2933
887 6089.418 2931
888 6092.072 2927
889 6094.724 2925
890 6097.377 2923
891 6100.029 2923
892 6102.682 2921
893 6105.334 2917
894 6107.985 2914
895 6110.637 2911
896 6113.289 2912
897 6115.941 2909
898 6118.591 2907
899 6121.243 2902
900 6123.893 2900
901 6126.545 2899
902 6129.195 2896
903 6131.845 2895
904 6134.496 2891
905 6137.146 2888
906 6139.795 2884
907 6142.445 2883
908 6145.095 2881
909 6147.744 2879
910 6150.392 2875
911 6153.042 2871
912 6155.691 2868
913 6158.339 2868
914 6160.988 2867
915 6163.636 2863
916 6166.284 2858
917 6168.931 2855
918 6171.579 2854
919 6174.227 2853
920 6176.874 2850
921 6179.521 2843
922 6182.168 2839
923 6184.815 2836
924 6187.462 2835
925 6190.108 2836
926 6192.755 2829
927 6195.4 2826
928 6198.046 2823
929 6200.692 2820
930 6203.337 2819
931 6205.983 2816
932 6208.628 2812
933 6211.273 2807
934 6213.917 2805
935 6216.562 2802
936 6219.206 2801
937 6221.851 2794
938 6224.495 2788
939 6227.139 2783
940 6229.782 2781
941 6232.426 2780
942 6235.069 2775
943 6237.712 2770
944 6240.355 2763
945 6242.997 2758
946 6245.64 2749
947 6248.282 2738
948 6250.924 2727
949 6253.566 2715
950 6256.208 2703
951 6258.85 2696
952 6261.491 2692
953 6264.132 2683
954 6266.773 2672
955 6269.414 2665
956 6272.054 2659
957 6274.695 2655
958 6277.335 2650
959 6279.975 2644
960 6282.615 2639
961 6285.255 2632
962 6287.894 2630
963 6290.533 2627
964 6293.173 2620
965 6295.811 2615
966 6298.45 2609
967 6301.088 2606
968 6303.727 2602
969 6306.365 2600
970 6309.003 2594
971 6311.641 2591
972 6314.278 2589
973 6316.915 2586
974 6319.553 2583
975 6322.189 2577
976 6324.826 2572
977 6327.463 2570
978 6330.099 2568
979 6332.735 2566
980 6335.371 2562
981 6338.007 2557
982 6340.642 2553
983 6343.278 2551
984 6345.913 2548
985 6348.548 2545
986 6351.182 2542
987 6353.817 2538
988 6356.451 2535
989 6359.086 2536
990 6361.719 2534
991 6364.353 2531
992 6366.987 2525
993 6369.62 2522
994 6372.253 2520
995 6374.886 2520
996 6377.519 2519
997 6380.152 2517
998 6382.784 2510
999 6385.416 2508
1000 6388.048 2509
1001 6390.68 2507
1002 6393.311 2504
1003 6395.942 2499
1004 6398.574 2496
1005 6401.204 2495
1006 6403.835 2493
1007 6406.466 2491
1008 6409.097 2489
1009 6411.726 2484
1010 6414.356 2480
1011 6416.986 2478
1012 6419.615 2479
1013 6422.244 2473
1014 6424.874 2469
1015 6427.503 2463
1016 6430.132 2463
1017 6432.759 2463
1018 6435.388 2463
1019 6438.016 2457
1020 6440.644 2455
1021 6443.271 2453
1022 6445.899 2453
1023 6448.527 2450
1024 6451.154 2446
1025 6453.78 2440
1026 6456.407 2437
1027 6459.033 2436
1028 6461.659 2435
1029 6464.285 2433
1030 6466.911 2427
1031 6469.537 2424
1032 6472.162 2422
1033 6474.787 2421
1034 6477.412 2421
1035 6480.037 2417
1036 6482.661 2412
1037 6485.285 2408
1038 6487.91 2408
1039 6490.533 2405
1040 6493.157 2403
1041 6495.781 2397
1042 6498.404 2394
1043 6501.027 2392
1044 6503.649 2390
1045 6506.272 2387
1046 6508.895 2382
1047 6511.517 2379
1048 6514.138 2374
1049 6516.76 2373
1050 6519.382 2370
1051 6522.003 2369
1052 6524.624 2363
1053 6527.245 2361
1054 6529.866 2358
1055 6532.486 2357
1056 6535.106 2353
1057 6537.726 2349
1058 6540.347 2343
1059 6542.966 2340
1060 6545.585 2338
1061 6548.204 2336
1062 6550.823 2332
1063 6553.442 2328
1064 6556.061 2323
1065 6558.679 2320
1066 6561.297 2320
1067 6563.915 2317
1068 6566.533 2312
1069 6569.15 2308
1070 6571.768 2303
1071 6574.384 2299
1072 6577.001 2298
1073 6579.617 2294
1074 6582.233 2290
1075 6584.85 2285
1076 6587.466 2280
1077 6590.082 2279
1078 6592.697 2278
1079 6595.312 2273
1080 6597.927 2266
1081 6600.542 2263
1082 6603.156 2262
1083 6605.771 2260
1084 6608.385 2255
1085 6610.999 2252
1086 6613.613 2247
1087 6616.226 2242
1088 6618.84 2241
1089 6621.453 2238
1090 6624.065 2233
1091 6626.678 2228
1092 6629.29 2223
1093 6631.902 2220
1094 6634.514 2217
1095 6637.126 2213
1096 6639.738 2209
1097 6642.348 2203
1098 6644.96 2197
1099 6647.57 2195
1100 6650.181 2193
1101 6652.791 2188
1102 6655.402 2182
1103 6658.011 2179
1104 6660.621 2175
1105 6663.23 2173
1106 6665.84 2169
1107 6668.448 2163
1108 6671.058 2158
1109 6673.666 2153
1110 6676.274 2153
1111 6678.882 2147
1112 6681.49 2141
1113 6684.098 2134
1114 6686.705 2131
1115 6689.313 2127
1116 6691.92 2125
1117 6694.526 2121
1118 6697.133 2116
1119 6699.739 2110
1120 6702.345 2105
1121 6704.951 2102
1122 6707.557 2100
1123 6710.162 2094
1124 6712.767 2087
1125 6715.372 2083
1126 6717.977 2079
1127 6720.582 2076
1128 6723.185 2072
1129 6725.789 2067
1130 6728.394 2059
1131 6730.997 2055
1132 6733.6 2052
1133 6736.203 2049
1134 6738.806 2042
1135 6741.409 2034
1136 6744.011 2029
1137 6746.613 2025
1138 6749.216 2021
1139 6751.817 2017
1140 6754.418 2010
1141 6757.02 2004
1142 6759.621 2000
1143 6762.221 1995
1144 6764.822 1993
1145 6767.422 1985
1146 6770.023 1979
1147 6772.622 1975
1148 6775.222 1972
1149 6777.822 1968
1150 6780.421 1961
1151 6783.019 1956
1152 6785.618 1949
1153 6788.217 1945
1154 6790.815 1941
1155 6793.413 1935
1156 6796.011 1927
1157 6798.608 1921
1158 6801.206 1915
1159 6803.802 1912
1160 6806.4 1905
1161 6808.997 1897
1162 6811.593 1890
1163 6814.189 1883
1164 6816.785 1879
1165 6819.38 1873
1166 6821.976 1866
1167 6824.571 1857
1168 6827.166 1851
1169 6829.761 1847
1170 6832.355 1841
1171 6834.949 1834
1172 6837.543 1826
1173 6840.137 1820
1174 6842.731 1815
1175 6845.324 1811
1176 6847.917 1807
1177 6850.51 1797
1178 6853.102 1789
1179 6855.695 1782
1180 6858.287 1778
1181 6860.88 1774
1182 6863.471 1767
1183 6866.063 1759
1184 6868.654 1752
1185 6871.245 1745
1186 6873.835 1741
1187 6876.426 1735
1188 6879.016 1727
1189 6881.606 1719
1190 6884.196 1712
1191 6886.785 1709
1192 6889.375 1703
1193 6891.964 1695
1194 6894.553 1686
1195 6897.141 1679
1196 6899.73 1674
1197 6902.318 1667
1198 6904.905 1660
1199 6907.493 1652
1200 6910.081 1645
1201 6912.668 1640
1202 6915.255 1635
1203 6917.842 1628
1204 6920.428 1618
1205 6923.014 1611
1206 6925.6 1604
1207 6928.186 1600
1208 6930.771 1593
1209 6933.356 1584
1210 6935.942 1575
1211 6938.527 1570
1212 6941.111 1564
1213 6943.695 1559
1214 6946.279 1553
1215 6948.864 1543
1216 6951.447 1534
1217 6954.03 1528
1218 6956.613 1522
1219 6959.196 1513
1220 6961.779 1508
1221 6964.361 1499
1222 6966.943 1493
1223 6969.525 1485
1224 6972.106 1479
1225 6974.688 1474
1226 6977.269 1464
1227 6979.85 1456
1228 6982.43 1448
1229 6985.012 1442
1230 6987.592 1436
1231 6990.172 1428
1232 6992.751 1420
1233 6995.331 1411
1234 6997.91 1404
1235 7000.489 1399
1236 7003.068 1392
1237 7005.646 1384
1238 7008.224 1376
1239 7010.803 1368
1240 7013.38 1361
1241 7015.958 1355
1242 7018.535 1350
1243 7021.112 1340
1244 7023.689 1332
1245 7026.266 1323
1246 7028.842 1319
1247 7031.418 1312
1248 7033.994 1304
1249 7036.57 1295
1250 7039.145 1287
1251 7041.72 1280
1252 7044.295 1273
1253 7046.87 1267
1254 7049.444 1260
1255 7052.018 1251
1256 7054.592 1243
1257 7057.166 1237
1258 7059.739 1233
1259 7062.312 1225
1260 7064.885 1217
1261 7067.458 1209
1262 7070.03 1202
1263 7072.603 1197
1264 7075.175 1190
1265 7077.747 1184
1266 7080.317 1174
1267 7082.889 1168
1268 7085.46 1160
1269 7088.031 1155
1270 7090.601 1150
1271 7093.171 1144
1272 7095.742 1135
1273 7098.311 1126
1274 7100.881 1120
1275 7103.45 1115
1276 7106.019 1109
1277 7108.588 1100
1278 7111.156 1093
1279 7113.724 1088
1280 7116.293 1083
1281 7118.86 1078
1282 7121.428 1069
1283 7123.995 1061
1284 7126.562 1055
1285 7129.129 1049
1286 7131.696 1042
1287 7134.262 1037
1288 7136.829 1029
1289 7139.394 1022
1290 7141.959 1016
1291 7144.525 1011
1292 7147.09 1006
1293 7149.655 1000
1294 7152.219 992
1295 7154.784 986
1296 7157.348 982
1297 7159.911 976
1298 7162.476 970
1299 7165.039 962
1300 7167.603 957
1301 7170.165 950
1302 7172.728 948
1303 7175.29 943
1304 7177.852 936
1305 7180.414 929
1306 7182.975 924
1307 7185.537 919
1308 7188.098 916
1309 7190.659 910
1310 7193.22 901
1311 7195.781 895
1312 7198.34 890
1313 7200.9 887
1314 7203.46 881
1315 7206.02 875
1316 7208.578 867
1317 7211.138 862
1318 7213.696 859
1319 7216.255 855
1320 7218.813 849
1321 7221.371 843
1322 7223.929 839
1323 7226.487 833
1324 7229.044 829
1325 7231.6 826
1326 7234.158 819
1327 7236.714 813
1328 7239.27 808
1329 7241.826 804
1330 7244.382 801
1331 7246.937 797
1332 7249.492 790
1333 7252.048 785
1334 7254.603 780
1335 7257.156 776
1336 7259.711 774
1337 7262.265 768
1338 7264.819 762
1339 7267.372 757
1340 7269.926 754
1341 7272.479 750
1342 7275.032 747
1343 7277.584 741
1344 7280.136 737
1345 7282.689 732
1346 7285.24 730
1347 7287.792 725
1348 7290.343 722
1349 7292.894 716
1350 7295.446 711
1351 7297.996 708
1352 7300.546 705
1353 7303.096 703
1354 7305.646 697
1355 7308.195 691
1356 7310.745 688
1357 7313.294 686
1358 7315.842 683
1359 7318.391 679
1360 7320.94 673
1361 7323.488 669
1362 7326.035 665
1363 7328.583 664
1364 7331.13 661
1365 7333.678 656
1366 7336.224 651
1367 7338.771 647
1368 7341.318 646
1369 7343.864 644
1370 7346.409 640
1371 7348.955 634
1372 7351.501 630
1373 7354.046 628
1374 7356.591 626
1375 7359.135 623
1376 7361.68 620
1377 7364.224 616
1378 7366.768 612
1379 7369.312 611
1380 7371.855 609
1381 7374.398 606
1382 7376.941 600
1383 7379.484 597
1384 7382.026 594
1385 7384.568 594
1386 7387.11 591
1387 7389.651 587
1388 7392.193 583
1389 7394.734 580
1390 7397.275 579
1391 7399.816 578
1392 7402.357 576
1393 7404.896 570
1394 7407.437 567
1395 7409.976 565
1396 7412.516 564
1397 7415.055 563
1398 7417.594 558
1399 7420.132 554
1400 7422.671 553
1401 7425.209 552
1402 7427.747 550
1403 7430.285 547
1404 7432.822 542
1405 7435.359 540
1406 7437.897 539
1407 7440.434 538
1408 7442.97 537
1409 7445.506 533
1410 7448.043 530
1411 7450.578 528
1412 7453.113 527
1413 7455.649 527
1414 7458.184 523
1415 7460.719 520
1416 7463.253 518
1417 7465.787 517
1418 7468.322 517
1419 7470.856 515
1420 7473.389 509
1421 7475.922 508
1422 7478.455 506
1423 7480.988 507
1424 7483.521 507
1425 7486.053 504
1426 7488.585 500
1427 7491.116 498
1428 7493.648 498
1429 7496.18 498
1430 7498.711 495
1431 7501.241 493
1432 7503.772 490
1433 7506.302 487
1434 7508.833 487
1435 7511.362 488
1436 7513.892 486
1437 7516.422 482
1438 7518.951 481
1439 7521.479 480
1440 7524.008 480
1441 7526.537 479
1442 7529.065 475
1443 7531.592 473
1444 7534.12 471
1445 7536.648 471
1446 7539.175 471
1447 7541.702 469
1448 7544.229 466
1449 7546.755 464
1450 7549.281 462
1451 7551.807 464
1452 7554.333 463
1453 7556.859 460
1454 7559.383 457
1455 7561.908 454
1456 7564.433 454
1457 7566.958 454
1458 7569.482 452
1459 7572.006 450
1460 7574.529 448
1461 7577.053 447
1462 7579.576 448
1463 7582.099 447
1464 7584.622 445
1465 7587.145 442
1466 7589.667 440
1467 7592.189 439
1468 7594.711 440
1469 7597.232 439
1470 7599.753 437
1471 7602.275 435
1472 7604.796 434
1473 7607.316 434
1474 7609.836 434
1475 7612.357 433
1476 7614.876 430
1477 7617.396 428
1478 7619.915 427
1479 7622.434 427
1480 7624.953 427
1481 7627.471 426
1482 7629.99 422
1483 7632.508 421
1484 7635.026 421
1485 7637.543 421
1486 7640.061 421
1487 7642.578 419
1488 7645.095 416
1489 7647.612 414
1490 7650.128 414
1491 7652.645 415
1492 7655.16 414
1493 7657.676 411
1494 7660.192 410
1495 7662.707 408
1496 7665.222 408
1497 7667.736 408
1498 7670.251 406
1499 7672.766 404
1500 7675.279 402
1501 7677.793 402
1502 7680.306 402
1503 7682.82 402
1504 7685.333 399
1505 7687.845 396
1506 7690.358 396
1507 7692.87 396
1508 7695.383 397
1509 7697.894 395
1510 7700.406 392
1511 7702.917 389
1512 7705.428 389
1513 7707.939 390
1514 7710.45 390
1515 7712.96 386
1516 7715.471 384
1517 7717.98 383
1518 7720.49 383
1519 7722.999 383
1520 7725.508 382
1521 7728.018 379
1522 7730.527 378
1523 7733.035 376
1524 7735.543 378
1525 7738.051 377
1526 7740.559 376
1527 7743.066 372
1528 7745.573 371
1529 7748.08 372
1530 7750.588 371
1531 7753.094 371
1532 7755.6 368
1533 7758.106 366
1534 7760.612 365
1535 7763.118 367
1536 7765.623 366
1537 7768.128 365
1538 7770.632 362
1539 7773.137 360
1540 7775.642 359
1541 7778.146 360
1542 7780.649 360
1543 7783.154 357
1544 7785.657 356
1545 7788.16 354
1546 7790.663 356
1547 7793.166 355
1548 7795.668 354
1549 7798.171 352
1550 7800.672 351
1551 7803.174 350
1552 7805.676 351
1553 7808.177 350
1554 7810.678 348
1555 7813.179 345
1556 7815.679 345
1557 7818.18 344
1558 7820.68 345
1559 7823.18 344
1560 7825.679 342
1561 7828.178 340
1562 7830.677 339
1563 7833.177 340
1564 7835.676 341
1565 7838.173 339
1566 7840.672 336
1567 7843.17 335
1568 7845.668 335
1569 7848.165 336
1570 7850.662 335
1571 7853.159 333
1572 7855.656 331
1573 7858.152 331
1574 7860.649 332
1575 7863.145 332
1576 7865.641 330
1577 7868.136 328
1578 7870.632 326
1579 7873.127 326
1580 7875.622 327
1581 7878.116 327
1582 7880.61 325
1583 7883.105 323
1584 7885.599 322
1585 7888.092 323
1586 7890.586 324
1587 7893.079 323
1588 7895.572 321
1589 7898.065 319
1590 7900.557 318
1591 7903.05 320
1592 7905.541 319
1593 7908.033 319
1594 7910.525 317
1595 7913.016 315
1596 7915.507 314
1597 7917.998 315
1598 7920.489 316
1599 7922.98 315
1600 7925.469 313
1601 7927.96 312
1602 7930.449 311
1603 7932.939 312
1604 7935.428 313
1605 7937.917 313
1606 7940.406 311
1607 7942.894 309
1608 7945.382 308
1609 7947.87 309
1610 7950.358 309
1611 7952.845 309
1612 7955.333 306
1613 7957.82 306
1614 7960.308 305
1615 7962.794 307
1616 7965.28 307
1617 7967.767 306
1618 7970.253 304
1619 7972.738 303
1620 7975.223 302
1621 7977.709 303
1622 7980.194 304
1623 7982.678 303
1624 7985.163 301
1625 7987.648 299
1626 7990.132 300
1627 7992.615 301
1628 7995.099 302
1629 7997.582 300
1630 8000.065 298
1631 8002.548 297
1632 8005.031 297
1633 8007.514 299
1634 8009.996 300
1635 8012.478 299
1636 8014.96 297
1637 8017.441 295
1638 8019.922 296
1639 8022.404 298
1640 8024.885 298
1641 8027.365 297
1642 8029.846 294
1643 8032.325 294
1644 8034.806 294
1645 8037.286 296
1646 8039.764 296
1647 8042.244 295
1648 8044.723 293
1649 8047.202 292
1650 8049.68 292
1651 8052.159 294
1652 8054.637 294
1653 8057.114 293
1654 8059.592 292
1655 8062.07 291
1656 8064.547 291
1657 8067.023 292
1658 8069.5 293
1659 8071.977 291
1660 8074.453 290
1661 8076.929 289
1662 8079.405 289
1663 8081.88 291
1664 8084.356 292
1665 8086.83 289
1666 8089.305 288
1667 8091.78 288
1668 8094.255 288
1669 8096.729 290
1670 8099.203 290
1671 8101.677 288
1672 8104.15 287
1673 8106.623 286
1674 8109.096 289
1675 8111.569 289
1676 8114.041 289
1677 8116.514 287
1678 8118.986 286
1679 8121.458 285
1680 8123.929 288
1681 8126.401 289
1682 8128.872 287
1683 8131.343 286
1684 8133.813 284
1685 8136.284 285
1686 8138.755 287
1687 8141.225 288
1688 8143.694 286
1689 8146.164 285
1690 8148.633 284
1691 8151.103 284
1692 8153.572 286
1693 8156.041 287
1694 8158.509 285
1695 8160.977 283
1696 8163.445 283
1697 8165.913 283
1698 8168.381 285
1699 8170.848 286
1700 8173.315 285
1701 8175.782 284
1702 8178.249 283
1703 8180.715 283
1704 8183.181 284
1705 8185.647 286
1706 8188.113 285
1707 8190.578 282
1708 8193.044 282
1709 8195.509 283
1710 8197.974 285
1711 8200.438 286
1712 8202.903 283
1713 8205.367 282
1714 8207.831 281
1715 8210.294 283
1716 8212.758 285
1717 8215.222 285
1718 8217.685 283
1719 8220.147 282
1720 8222.61 282
1721 8225.073 283
1722 8227.534 285
1723 8229.996 284
1724 8232.458 282
1725 8234.919 282
1726 8237.38 282
1727 8239.842 282
1728 8242.303 283
1729 8244.763 283
1730 8247.224 282
1731 8249.683 281
1732 8252.144 281
1733 8254.603 282
1734 8257.062 284
1735 8259.522 283
1736 8261.981 282
1737 8264.44 282
1738 8266.898 281
1739 8269.357 282
1740 8271.815 284
1741 8274.273 282
1742 8276.73 280
1743 8279.188 281
1744 8281.645 281
1745 8284.102 283
1746 8286.558 283
1747 8289.016 281
1748 8291.472 280
1749 8293.928 280
1750 8296.384 281
1751 8298.839 282
1752 8301.295 283
1753 8303.749 281
1754 8306.205 280
1755 8308.66 280
1756 8311.115 281
1757 8313.568 282
1758 8316.022 282
1759 8318.477 281
1760 8320.93 280
1761 8323.383 280
1762 8325.837 281
1763 8328.29 281
1764 8330.743 282
1765 8333.195 280
1766 8335.647 280
1767 8338.099 280
1768 8340.551 281
1769 8343.003 282
1770 8345.454 282
1771 8347.906 280
1772 8350.356 279
1773 8352.807 280
1774 8355.258 282
1775 8357.708 283
1776 8360.158 280
1777 8362.608 280
1778 8365.058 278
1779 8367.507 281
1780 8369.956 282
1781 8372.405 282
1782 8374.854 280
1783 8377.303 279
1784 8379.751 279
1785 8382.199 281
1786 8384.647 282
1787 8387.095 282
1788 8389.542 280
1789 8391.989 279
1790 8394.437 280
1791 8396.883 281
1792 8399.329 282
1793 8401.776 281
1794 8404.222 280
1795 8406.667 278
1796 8409.114 280
1797 8411.559 281
1798 8414.005 282
1799 8416.449 281
1800 8418.894 279
1801 8421.339 279
1802 8423.783 280
1803 8426.227 281
1804 8428.671 282
1805 8431.115 280
1806 8433.558 279
1807 8436.001 278
1808 8438.444 280
1809 8440.887 281
1810 8443.33 281
1811 8445.772 279
1812 8448.214 279
1813 8450.656 279
1814 8453.098 280
1815 8455.54 282
1816 8457.981 281
1817 8460.422 279
1818 8462.863 279
1819 8465.303 280
1820 8467.744 281
1821 8470.184 283
1822 8472.623 280
1823 8475.063 279
1824 8477.503 279
1825 8479.943 280
1826 8482.381 280
1827 8484.82 281
1828 8487.259 280
1829 8489.697 279
1830 8492.135 279
1831 8494.573 281
1832 8497.011 281
1833 8499.449 280
1834 8501.886 279
1835 8504.323 278
1836 8506.76 279
1837 8509.197 280
1838 8511.633 281
1839 8514.069 279
1840 8516.505 279
1841 8518.94 278
1842 8521.376 279
1843 8523.812 281
1844 8526.247 280
1845 8528.682 280
1846 8531.116 279
1847 8533.551 278
1848 8535.985 280
1849 8538.419 281
1850 8540.853 281
1851 8543.287 279
1852 8545.72 279
1853 8548.152 278
1854 8550.586 280
1855 8553.019 281
1856 8555.451 280
1857 8557.883 278
1858 8560.316 278
1859 8562.747 279
1860 8565.179 281
1861 8567.61 280
1862 8570.042 279
1863 8572.473 278
1864 8574.903 278
1865 8577.333 280
1866 8579.764 281
1867 8582.194 280
1868 8584.623 278
1869 8587.053 278
1870 8589.482 278
1871 8591.912 280
1872 8594.341 281
1873 8596.769 280
1874 8599.198 278
1875 8601.627 277
1876 8604.055 279
1877 8606.483 279
1878 8608.91 280
1879 8611.338 279
1880 8613.765 278
1881 8616.191 278
1882 8618.619 279
1883 8621.045 280
1884 8623.471 280
1885 8625.897 278
1886 8628.323 277
1887 8630.749 278
1888 8633.174 279
1889 8635.6 280
1890 8638.025 279
1891 8640.449 277
1892 8642.874 277
1893 8645.298 278
1894 8647.723 280
1895 8650.146 280
1896 8652.57 278
1897 8654.994 277
1898 8657.417 277
1899 8659.84 279
1900 8662.263 280
1901 8664.686 280
1902 8667.108 277
1903 8669.53 278
1904 8671.952 277
1905 8674.374 279
1906 8676.796 280
1907 8679.216 279
1908 8681.638 277
1909 8684.058 277
1910 8686.479 277
1911 8688.9 279
1912 8691.32 280
1913 8693.74 279
1914 8696.159 277
1915 8698.578 277
1916 8700.998 278
1917 8703.417 280
1918 8705.836 280
1919 8708.254 278
1920 8710.673 277
1921 8713.091 277
1922 8715.509 278
1923 8717.927 279
1924 8720.345 279
1925 8722.762 277
1926 8725.179 277
1927 8727.596 278
1928 8730.013 280
1929 8732.429 280
1930 8734.845 279
1931 8737.261 277
1932 8739.677 277
1933 8742.092 278
1934 8744.508 280
1935 8746.923 280
1936 8749.338 277
1937 8751.752 277
1938 8754.167 277
1939 8756.581 279
1940 8758.995 279
1941 8761.409 278
1942 8763.823 277
1943 8766.236 277
1944 8768.649 279
1945 8771.062 280
1946 8773.475 280
1947 8775.887 278
1948 8778.3 277
1949 8780.711 277
1950 8783.123 279
1951 8785.535 280
1952 8787.946 280
1953 8790.357 277
1954 8792.768 277
1955 8795.179 278
1956 8797.589 280
1957 8799.999 281
1958 8802.41 278
1959 8804.819 277
1960 8807.229 277
1961 8809.638 279
1962 8812.048 281
1963 8814.457 279
1964 8816.865 278
1965 8819.274 277
1966 8821.682 277
1967 8824.09 279
1968 8826.497 280
1969 8828.905 278
1970 8831.313 276
1971 8833.72 277
1972 8836.127 278
1973 8838.533 279
1974 8840.94 280
1975 8843.346 278
1976 8845.752 277
1977 8848.158 277
1978 8850.563 279
1979 8852.968 280
1980 8855.374 280
1981 8857.779 277
1982 8860.184 277
1983 8862.587 277
1984 8864.992 279
1985 8867.396 281
1986 8869.8 278
1987 8872.203 277
1988 8874.606 277
1989 8877.01 278
1990 8879.413 280
1991 8881.815 280
1992 8884.218 278
1993 8886.62 277
1994 8889.022 277
1995 8891.423 279
1996 8893.825 281
1997 8896.226 279
1998 8898.628 277
1999 8901.028 277
2000 8903.429 278
2001 8905.829 279
2002 8908.229 281
2003 8910.629 279
2004 8913.029 277
2005 8915.429 277
2006 8917.828 278
2007 8920.227 280
2008 8922.626 280
2009 8925.024 278
2010 8927.422 277
2011 8929.821 277
2012 8932.219 278
2013 8934.617 280
2014 8937.014 280
2015 8939.411 278
2016 8941.808 278
2017 8944.205 277
2018 8946.601 278
2019 8948.998 280
2020 8951.394 280
2021 8953.79 278
2022 8956.185 277
2023 8958.58 277
2024 8960.976 279
2025 8963.37 280
2026 8965.765 280
2027 8968.16 277
2028 8970.554 277
2029 8972.948 278
2030 8975.342 279
2031 8977.736 280
2032 8980.129 279
2033 8982.522 277
2034 8984.915 277
2035 8987.308 278
2036 8989.7 279
2037 8992.092 280
2038 8994.484 279
2039 8996.876 278
2040 8999.268 277
2041 9001.658 278
2042 9004.05 280
2043 9006.44 280
2044 9008.831 279
2045 9011.221 277
2046 9013.611 278
2047 9016.002 278
2048 9018.391 280
2049 9020.78 280
2050 9023.17 278
2051 9025.558 278
2052 9027.947 277
2053 9030.336 280
2054 9032.724 280
2055 9035.112 281
2056 9037.499 278
2057 9039.887 278
2058 9042.275 277
2059 9044.662 278
2060 9047.048 280
2061 9049.435 280
2062 9051.822 278
2063 9054.208 277
2064 9056.594 278
2065 9058.979 279
2066 9061.365 280
2067 9063.751 280
2068 9066.135 278
2069 9068.52 278
2070 9070.905 277
2071 9073.289 278
2072 9075.673 280
2073 9078.057 280
2074 9080.44 279
2075 9082.823 277
2076 9085.206 278
2077 9087.59 280
2078 9089.972 280
2079 9092.354 281
2080 9094.736 279
2081 9097.119 277
2082 9099.5 278
2083 9101.882 280
2084 9104.263 280
2085 9106.644 281
2086 9109.025 279
2087 9111.405 278
2088 9113.785 278
2089 9116.165 279
2090 9118.546 280
2091 9120.925 281
2092 9123.304 279
2093 9125.683 278
2094 9128.062 278
2095 9130.44 279
2096 9132.819 280
2097 9135.197 280
2098 9137.574 279
2099 9139.952 279
2100 9142.33 278
2101 9144.707 280
2102 9147.084 281
2103 9149.46 281
2104 9151.837 278
2105 9154.213 278
2106 9156.589 278
2107 9158.965 280
2108 9161.34 281
2109 9163.716 281
2110 9166.09 279
2111 9168.465 278
2112 9170.84 279
2113 9173.214 280
2114 9175.588 281
2115 9177.961 281
2116 9180.335 279
2117 9182.708 278
2118 9185.081 278
2119 9187.454 280
2120 9189.827 281
2121 9192.199 280
2122 9194.571 278
2123 9196.943 278
2124 9199.315 278
2125 9201.686 280
2126 9204.057 282
2127 9206.428 281
2128 9208.798 278
2129 9211.168 277
2130 9213.539 278
2131 9215.909 280
2132 9218.278 281
2133 9220.648 280
2134 9223.016 278
2135 9225.386 278
2136 9227.755 279
2137 9230.122 280
2138 9232.49 280
2139 9234.858 279
2140 9237.226 278
2141 9239.593 278
2142 9241.96 278
2143 9244.327 281
2144 9246.694 281
2145 9249.06 279
2146 9251.426 278
2147 9253.792 278
2148 9256.158 280
2149 9258.523 281
2150 9260.888 281
2151 9263.253 279
2152 9265.618 279
2153 9267.982 280
2154 9270.346 281
2155 9272.711 282
2156 9275.073 281
2157 9277.437 280
2158 9279.8 280
2159 9282.163 280
2160 9284.525 282
2161 9286.888 283
2162 9289.25 281
2163 9291.611 280
2164 9293.973 280
2165 9296.335 281
2166 9298.696 282
2167 9301.057 284
2168 9303.417 281
2169 9305.778 280
2170 9308.138 280
2171 9310.497 282
2172 9312.856 283
2173 9315.216 283
2174 9317.575 282
2175 9319.933 281
2176 9322.292 281
2177 9324.651 282
2178 9327.009 284
2179 9329.366 283
2180 9331.724 281
2181 9334.081 281
2182 9336.438 282
2183 9338.795 285
2184 9341.151 285
2185 9343.508 283
2186 9345.863 282
2187 9348.219 281
2188 9350.574 282
2189 9352.93 284
2190 9355.284 284
2191 9357.639 283
2192 9359.993 282
2193 9362.347 282
2194 9364.701 283
2195 9367.054 284
2196 9369.408 285
2197 9371.761 283
2198 9374.114 283
2199 9376.466 282
2200 9378.819 284
2201 9381.171 285
2202 9383.522 284
2203 9385.874 283
2204 9388.225 282
2205 9390.576 283
2206 9392.927 285
2207 9395.277 286
2208 9397.627 285
2209 9399.977 283
2210 9402.327 283
2211 9404.676 283
2212 9407.025 285
2213 9409.374 285
2214 9411.722 285
2215 9414.07 283
2216 9416.418 283
2217 9418.766 283
2218 9421.114 285
2219 9423.461 285
2220 9425.808 284
2221 9428.154 283
2222 9430.501 283
2223 9432.847 284
2224 9435.193 286
2225 9437.538 286
2226 9439.883 284
2227 9442.229 284
2228 9444.574 283
2229 9446.918 285
2230 9449.262 285
2231 9451.606 286
2232 9453.95 285
2233 9456.293 283
2234 9458.636 283
2235 9460.979 286
2236 9463.322 287
2237 9465.664 286
2238 9468.006 284
2239 9470.348 283
2240 9472.689 284
2241 9475.031 285
2242 9477.371 285
2243 9479.712 285
2244 9482.052 284
2245 9484.393 284
2246 9486.732 284
2247 9489.072 286
2248 9491.411 286
2249 9493.75 285
2250 9496.089 283
2251 9498.427 283
2252 9500.765 285
2253 9503.103 286
2254 9505.441 284
