/absorption data GaAs taken from S.Adachi
"/Optical constants of crystalline and amorphous semiconductors",pp.220-226, file edited by Samira Khelifi"
/Lambda[nm]	alfa[m^-1]
206.63	1.23E8
225.42	1.34E8
236.06	1.88E8
240.03	1.97E8
244.05	2.09E8
248.05	2.15E8
252.04	2.11E8
256.05	1.96E8
260.07	1.8E8
264.07	1.64E8
268.06	1.51E8
272.06	1.4E8
276.06	1.29E8
280.05	1.16E8
284.09	1.04E8
288.06	9.59E7
292.06	8.94E7
296.04	8.5E7
300.05	8.15E7
304.09	7.91E7
308.1	7.72E7
312.06	7.57E7
316.11	7.46E7
320.11	7.36E7
324.05	7.28E7
328.08	7.23E7
332.12	7.17E7
336.08	7.12E7
340.04	7.09E7
344.1	7.06E7
348.06	7.06E7
352.12	7.05E7
356.06	7.04E7
360.09	7.05E7
364.11	7.06E7
368.11	7.07E7
372.09	7.1E7
376.04	7.13E7
380.07	7.2E7
384.08	7.27E7
388.04	7.3E7
392.09	7.23E7
396.1	6.94E7
400.06	6.54E7
404.1	6.19E7
408.09	5.92E7
412.17	5.75E7
416.04	5.69E7
420.13	5.65E7
424.15	5.38E7
428.1	4.59E7
432.14	3.85E7
436.09	3.27E7
440.01	2.83E7
444.05	2.48E7
448.07	2.21E7
455.14	1.87E7
465.04	1.53E7
475.2	1.3E7
485.05	1.13E7
490.04	1.06E7
495.13	1E7
500.12	9.45E6
505.21	8.96E6
510.2	8.53E6
515.08	8.15E6
520.05	7.78E6
525.11	7.44E6
530.055	7.14E6
535.09	6.84E6
540.21	6.56E6
545.2	6.34E6
550.04	6.12E6
555.21	5.91E6
560.23	5.72E6
565.09	5.52E6
570.023	5.36E6
575.046	5.18E6
580.16	5.03E6
585.09	4.88E6
590.09	4.73E6
595.19	4.6E6
600.096	4.48E6
605.08	4.36E6
610.14	4.24E6
615.29	4.15E6
620.21	4.03E6
625.21	3.92E6
630.29	3.81E6
635.14	3.72E6
640.06	3.63E6
645.057	3.55E6
650.13	3.44E6
655.29	3.36E6
660.17	3.26E6
665.13	3.17E6
670.16	3.08E6
675.27	3.02E6
680.087	2.94E6
685.35	2.83E6
690.31	2.75E6
695.34	2.68E6
700.06	2.53E6
705.23	2.41E6
710.08	2.32E6
714.99	2.21E6
719.98	2.15E6
725.03	2.08E6
730.15	2E6
735.35	1.95E6
740.18	1.88E6
745.07	1.82E6
750.03	1.81E6
755.05	1.75E6
760.15	1.74E6
765.3	1.66E6
770.06	1.65E6
775.36	1.57E6
780.24	1.53E6
785.18	1.5E6
790.18	1.46E6
795.25	1.41E6
800.39	1.4E6
805.06	1.34E6
810.37	1.27E6
815.12	1.3E6
819.97	1.24E6
825.43	1.17E6
837.7	1.13E6
843.4	1.09E6
849.18	1.03E6
855.03	967000
860.97	890000
866.99	833000
870.04	828000
871.87	840000
872.48	838000
873.098	698000
879.3	25900
885.571  0	
953.692  0
10000	 0	
