/ absorption data of ZnTe taken from S. Adachi	
/ "Optical constants of crystalline and amorphous semiconductors"	
/ pp. 480-483	
/ Marc B., 17-10-2011	
/lambda[nm]	alpha[m^-1]
262.95	9.51E+07
263.96	9.41E+07
264.97	9.31E+07
265.94	9.23E+07
266.97	9.14E+07
267.95	9.06E+07
268.94	8.99E+07
269.93	8.93E+07
270.94	8.87E+07
271.95	8.81E+07
272.96	8.77E+07
273.93	8.73E+07
274.96	8.69E+07
275.94	8.66E+07
276.93	8.64E+07
277.98	8.62E+07
278.98	8.62E+07
279.93	8.62E+07
280.94	8.61E+07
281.96	8.62E+07
282.93	8.64E+07
283.97	8.68E+07
284.95	8.71E+07
285.93	8.74E+07
286.92	8.78E+07
287.92	8.82E+07
288.93	8.86E+07
289.94	8.88E+07
290.96	8.91E+07
291.92	8.92E+07
292.96	8.91E+07
293.93	8.89E+07
294.98	8.85E+07
295.97	8.78E+07
296.96	8.71E+07
297.96	8.60E+07
298.96	8.46E+07
300.92	8.20E+07
301.95	8.06E+07
303.95	7.77E+07
304.92	7.64E+07
306.96	7.36E+07
308.95	7.09E+07
309.95	6.97E+07
311.98	6.77E+07
312.92	6.67E+07
314.91	6.50E+07
316.92	6.36E+07
317.98	6.30E+07
319.95	6.19E+07
321.94	6.11E+07
322.95	6.08E+07
324.98	6.05E+07
326.95	6.03E+07
328.95	6.07E+07
329.91	6.10E+07
331.94	6.19E+07
333.91	6.31E+07
335.99	6.45E+07
337.91	6.58E+07
339.95	6.63E+07
340.98	6.63E+07
342.96	6.53E+07
344.96	6.30E+07
346.99	5.98E+07
348.94	5.64E+07
350.92	5.23E+07
352.92	4.84E+07
354.94	4.49E+07
356.98	4.17E+07
359.99	3.77E+07
361.99	3.55E+07
363.9	3.34E+07
365.94	3.16E+07
367.89	3.00E+07
369.98	2.84E+07
372.98	2.65E+07
374.9	2.51E+07
376.95	2.43E+07
378.91	2.31E+07
380.89	2.25E+07
382.89	2.15E+07
384.91	2.07E+07
386.95	2.00E+07
388.9	1.90E+07
390.98	1.86E+07
392.96	1.81E+07
394.97	1.72E+07
396.99	1.67E+07
398.91	1.61E+07
400.97	1.56E+07
402.92	1.52E+07
404.9	1.48E+07
406.89	1.47E+07
407.96	1.43E+07
409.99	1.40E+07
412.99	1.35E+07
415.9	1.28E+07
418.99	1.25E+07
421.99	1.19E+07
424.88	1.16E+07
427.96	1.13E+07
430.94	1.07E+07
433.95	1.05E+07
436.86	1.05E+07
439.96	9.65E+06
442.94	9.71E+06
445.97	9.82E+06
449.85	9.21E+06
452.98	9.10E+06
455.98	8.46E+06
459.87	8.33E+06
462.96	7.79E+06
466.97	7.83E+06
470.33	7.71E+06
473.93	7.72E+06
477.95	7.36E+06
480.92	7.14E+06
484.87	7.15E+06
488.88	6.90E+06
492.96	6.57E+06
496.91	5.79E+06
500.93	5.61E+06
505.01	5.78E+06
508.95	6.12E+06
514.01	6.01E+06
517.88	5.86E+06
522.02	4.94E+06
526.9	4.87E+06
528.92	4.83E+06
530.96	4.78E+06
533.02	4.71E+06
534.86	4.66E+06
536.94	4.39E+06
538.81	4.23E+06
540.92	3.80E+06
542.82	3.38E+06
544.97	2.95E+06
